##BLOCKS= 1          
Plate:	A4224.Ag251-03	1.3	PlateFormat	Endpoint	Absorbance	Raw	FALSE	1						1	450	1	12	96	1	8	None	
	Temperature(¡C)	1	2	3	4	5	6	7	8	9	10	11	12		
	23.00	0.1009	0.1394	0.0961	0.0947	0.0789	0.0868	0.0765	0.0883	0.0933	0.0855	0.0906	0.0787		
		0.0806	0.1069	0.0778	0.0753	0.0716	0.0728	0.0605	0.0516	0.0457	0.0452	0.0456	0.0498		
		0.0338	0.048	0.0325	0.0445	0.0384	0.044	0.0427	0.0391	0.0379	0.0437	0.0299	0.0364		
		0.0852	0.0771	0.0791	0.0826	0.0721	0.0805	0.0895	0.084	0.0778	0.082	0.0805	0.0759		
		0.0865	0.0808	0.0757	0.0737	0.0816	0.0815	0.0445	0.0472	0.0511	0.0441	0.0443	0.0451		
		0.0386	0.0394	0.0406	0.0404	0.0434	0.0401	0.035	0.0394	0.0336	0.0402	0.0385	0.0405		
		0.0384	0.0574	0.0409	0.0416	0.0418	0.0472	0.0395	0.038	0.0427	0.0384	0.0439	0.0402		
		0.0383	0.0384	0.0436	0.0415	0.0427	0.0353	0.0373	0.0385	0.0398	0.0456	0.0425	0.0446		
		
~End
Instrument type: Instrument serial number:
